DTS Sentinel unit serial number:	SN413079Multiplexer serial number:	ORYXHardware model number:	OX4-SRSoftware version number:	ORYX F/W v4.00 Oryx Data Collector v3.7.2.0data status	okinstallation	princeton_trtdifferential loss correction	single-endedforward channel	channel 2reverse channel	N/Adate	2019/10/01time	00:03:35forward acquisition time	60.00reverse acquisition time	0.00gamma	496.2192k internal	0.2336k external	0.2336temperature offset calibration	0.9945default loss term (dB/km)	0.3790temperature slope calibration	1.0000multiplexer offset coefficient	1.0000multiplexer slope coefficient	1.0000fibre end	0.00T internal ref (°C)	27.12T ext. ref 1 (°C)	4.06T ext. ref 2 (°C)	21.06length (m)	temperature (°C)	Stokes	anti-Stokes-747.200	-114.032	0.109	0.021
-746.185	153.212	-0.136	-0.186
-745.171	-72.915	0.038	-0.014
-744.156	-151.235	-0.050	0.004
-743.142	13.671	0.158	0.123
-742.127	-200.000	-0.002	0.404
-741.112	-179.350	0.271	0.006
-740.098	-160.892	-0.759	-0.040
-739.083	-200.000	0.048	-0.397
-738.069	356.774	-0.094	-0.188
-737.054	-8.963	0.146	0.098
-736.039	-7.032	-0.211	0.144
-735.025	-24.410	0.231	-0.138
-734.010	-134.076	0.215	0.027
-732.996	-200.000	-0.059	-0.305
-731.981	73.038	-0.246	-0.258
-730.966	-27.837	0.199	0.116
-729.952	-38.044	-0.341	-0.182
-728.937	-200.000	-0.014	0.148
-727.923	-52.643	0.208	-0.096
-726.908	-0.429	-0.358	-0.255
-725.894	-156.800	-0.143	-0.009
-724.879	583.920	-0.050	-0.124
-723.864	-124.914	-0.117	-0.018
-722.850	434.256	0.139	-0.303
-721.835	-200.000	-0.083	-0.404
-720.821	81.007	0.167	-0.181
-719.806	-60.009	0.172	-0.074
-718.791	24.060	0.365	0.302
-717.777	-52.362	-0.254	-0.118
-716.762	507.096	0.077	0.178
-715.748	-200.000	-0.003	0.116
-714.733	-143.284	0.391	-0.038
-713.718	33.336	0.068	-0.059
-712.704	35.684	-0.086	0.076
-711.689	-200.000	0.019	0.108
-710.675	473.542	-0.141	-0.319
-709.660	152.091	-0.201	-0.275
-708.645	199.020	-0.103	0.158
-707.631	-200.000	0.003	0.091
-706.616	800.000	0.042	-0.173
-705.602	800.000	-0.036	0.130
-704.587	43.241	0.015	-0.014
-703.572	-200.000	0.019	-0.338
-702.558	60.650	0.109	0.109
-701.543	171.317	0.225	0.323
-700.529	-47.415	0.205	0.100
-699.514	-200.000	0.010	-0.148
-698.499	262.907	-0.114	-0.199
-697.485	-32.276	0.340	-0.191
-696.470	159.746	0.139	-0.194
-695.456	-72.135	-0.163	-0.061
-694.441	51.440	-0.118	0.112
-693.426	396.479	-0.083	0.174
-692.412	-65.474	-0.184	0.074
-691.397	-42.114	0.212	0.109
-690.383	153.888	-0.043	-0.059
-689.368	-200.000	0.009	-0.364
-688.354	-61.562	0.295	-0.124
-687.339	-200.000	-0.010	-0.112
-686.324	299.018	-0.081	0.149
-685.310	-200.000	-0.003	0.109
-684.295	-200.000	0.027	0.189
-683.281	-25.419	-0.060	0.036
-682.266	800.000	0.080	-0.338
-681.251	272.751	0.173	-0.306
-680.237	219.294	-0.083	-0.133
-679.222	-200.000	-0.190	-0.001
-678.208	-103.902	0.277	-0.065
-677.193	374.992	-0.126	-0.256
-676.178	3.595	0.115	-0.084
-675.164	106.783	-0.169	0.201
-674.149	-66.588	0.272	-0.108
-673.135	15.134	-0.150	-0.118
-672.120	259.190	0.076	0.132
-671.105	-158.916	-0.091	-0.005
-670.091	48.123	0.079	0.074
-669.076	138.016	-0.151	-0.198
-668.062	800.000	-0.027	-0.085
-667.047	-200.000	-0.016	0.313
-666.032	-200.000	0.009	0.048
-665.018	-145.630	0.351	0.031
-664.003	800.000	-0.056	-0.232
-662.989	41.544	0.285	0.258
-661.974	-45.496	0.169	-0.084
-660.959	-34.054	-0.263	-0.145
-659.945	-173.483	-0.626	0.019
-658.930	-200.000	-0.081	-0.435
-657.916	70.047	-0.275	-0.284
-656.901	-5.308	0.079	-0.054
-655.886	800.000	0.017	0.059
-654.872	337.427	-0.181	0.353
-653.857	-89.041	0.297	-0.088
-652.843	14.111	0.147	-0.114
-651.828	800.000	0.114	-0.357
-650.814	-200.000	-0.035	-0.404
-649.799	-200.000	-0.033	0.223
-648.784	474.407	-0.182	-0.411
-647.770	-200.000	0.000	0.036
-646.755	163.325	0.082	-0.115
-645.741	-200.000	0.007	0.071
-644.726	387.503	0.064	0.133
-643.711	714.155	-0.054	0.144
-642.697	352.348	-0.037	-0.074
-641.682	800.000	-0.067	-0.244
-640.668	-200.000	0.017	-0.087
-639.653	-100.886	-0.237	-0.058
-638.638	-129.419	0.326	-0.045
-637.624	-124.449	-0.347	-0.054
-636.609	800.000	0.055	0.185
-635.595	-74.276	0.034	-0.012
-634.580	-57.289	-0.379	0.167
-633.565	-133.795	-0.282	0.035
-632.551	-128.336	-0.219	-0.031
-631.536	-79.144	0.311	-0.106
-630.522	800.000	0.087	0.253
-629.507	-100.547	-0.087	0.022
-628.492	-53.817	0.108	0.049
-627.478	201.586	-0.113	0.174
-626.463	27.198	-0.369	0.309
-625.449	705.384	-0.037	0.098
-624.434	-200.000	-0.008	0.049
-623.419	179.606	-0.134	0.197
-622.405	-73.670	-0.098	-0.036
-621.390	-16.353	-0.130	-0.083
-620.376	-92.508	0.061	-0.017
-619.361	-91.581	0.044	-0.012
-618.346	72.727	0.162	0.169
-617.332	-67.854	-0.157	-0.061
-616.317	-200.000	0.009	0.111
-615.303	-58.092	-0.174	0.076
-614.288	-59.090	0.133	-0.057
-613.273	107.176	0.138	0.164
-612.259	-107.701	-0.228	-0.050
-611.244	-44.327	0.095	0.048
-610.230	20.580	-0.075	0.061
-609.215	-114.023	0.174	-0.034
-608.201	-39.452	-0.245	-0.128
-607.186	15.396	-0.026	0.021
-606.171	-200.000	-0.029	-0.232
-605.157	-144.645	-0.305	-0.028
-604.142	114.841	0.128	-0.156
-603.128	-200.000	0.008	-0.048
-602.113	-133.190	-0.236	0.030
-601.098	122.072	-0.178	-0.223
-600.084	-188.873	0.303	-0.004
-599.069	-200.000	-0.022	-0.330
-598.055	474.428	-0.062	0.140
-597.040	199.697	0.056	-0.086
-596.025	282.597	0.175	-0.313
-595.011	175.284	0.165	-0.239
-593.996	27.691	-0.176	0.148
-592.982	-178.313	-0.384	-0.009
-591.967	-157.704	0.422	0.025
-590.952	-200.000	0.013	-0.247
-589.938	-200.000	-0.017	-0.120
-588.923	800.000	0.059	0.242
-587.909	-15.518	-0.063	0.040
-586.894	-80.843	-0.262	-0.087
-585.879	301.532	-0.075	-0.137
-584.865	30.654	-0.156	-0.134
-583.850	29.585	-0.183	0.155
-582.836	107.416	0.113	0.134
-581.821	-128.939	-0.410	0.057
-580.806	54.088	-0.148	0.142
-579.792	549.995	0.078	0.186
-578.777	55.371	0.072	-0.069
-577.763	171.648	-0.151	-0.216
-576.748	482.950	0.075	0.171
-575.733	-32.573	0.019	-0.010
-574.719	370.789	-0.126	-0.255
-573.704	-39.750	-0.207	-0.108
-572.690	-200.000	-0.030	-0.393
-571.675	-200.000	0.010	0.138
-570.661	-107.872	0.275	-0.060
-569.646	-200.000	-0.033	0.284
-568.631	-115.746	-0.047	-0.009
-567.617	94.129	0.146	-0.165
-566.602	-134.561	-0.249	0.030
-565.588	273.238	-0.214	-0.377
-564.573	-157.684	-0.161	-0.010
-563.558	269.052	0.121	-0.211
-562.544	-111.897	0.250	-0.050
-561.529	-114.885	0.193	-0.037
-560.515	220.761	-0.113	-0.180
-559.500	-151.909	0.083	-0.006
-558.485	322.178	-0.094	0.179
-557.471	-35.376	-0.308	-0.167
-556.456	59.283	-0.196	-0.192
-555.442	47.839	-0.120	-0.111
-554.427	-23.965	-0.144	0.086
-553.412	42.445	-0.158	0.143
-552.398	-18.433	-0.151	0.094
-551.383	244.148	0.137	-0.229
-550.369	-200.000	-0.003	0.255
-549.354	-200.000	-0.004	-0.044
-548.339	-45.629	0.218	-0.107
-547.325	-89.407	0.216	0.063
-546.310	-200.000	0.027	-0.366
-545.296	40.322	-0.258	-0.231
-544.281	-5.434	0.151	-0.103
-543.266	226.326	-0.137	0.222
-542.252	-97.667	0.388	-0.100
-541.237	-200.000	0.020	-0.141
-540.223	-200.000	-0.021	-0.236
-539.208	223.245	-0.063	0.100
-538.193	-192.948	-0.487	0.004
-537.179	376.288	0.127	-0.257
-536.164	131.970	-0.070	0.089
-535.150	800.000	-0.117	-0.334
-534.135	90.222	-0.160	-0.178
-533.121	-121.641	-0.389	0.064
-532.106	800.000	-0.025	-0.082
-531.091	-21.704	-0.117	0.071
-530.077	-31.971	0.064	0.036
-529.062	52.458	0.171	0.163
-528.048	800.000	-0.148	0.473
-527.033	-150.878	0.071	0.005
-526.018	-200.000	0.011	0.125
-525.004	82.544	0.020	0.021
-523.989	295.726	0.203	0.371
-522.975	-27.984	-0.359	-0.207
-521.960	762.186	0.168	-0.455
-520.945	-200.000	0.019	-0.142
-519.931	-57.898	-0.121	0.052
-518.916	163.875	-0.068	-0.095
-517.902	273.599	-0.188	0.331
-516.887	-200.000	0.066	-0.384
-515.872	-166.634	0.185	-0.008
-514.858	-200.000	-0.025	0.234
-513.843	-200.000	-0.002	0.098
-512.829	-35.694	0.154	-0.083
-511.814	-125.079	-0.371	-0.057
-510.799	311.985	0.102	0.191
-509.785	-105.686	-0.094	0.021
-508.770	-91.820	-0.168	0.047
-507.756	15.766	0.287	-0.225
-506.741	800.000	0.121	0.340
-505.726	13.213	0.202	-0.155
-504.712	19.479	-0.239	0.191
-503.697	789.750	-0.059	-0.160
-502.683	-200.000	-0.020	-0.094
-501.668	462.535	-0.086	-0.190
-500.653	6.677	0.037	-0.027
-499.639	-12.009	0.245	-0.159
-498.624	312.854	-0.027	0.051
-497.610	-81.811	-0.546	-0.178
-496.595	-162.397	0.077	-0.004
-495.581	184.832	-0.076	0.112
-494.566	-97.648	0.064	0.016
-493.551	243.217	0.170	-0.284
-492.537	-7.855	0.151	0.101
-491.522	-200.000	0.022	0.115
-490.508	42.714	-0.114	0.103
-489.493	-200.000	0.029	0.167
-488.478	728.620	0.047	0.124
-487.464	-200.000	-0.008	0.082
-486.449	420.115	0.145	-0.308
-485.435	55.479	0.141	-0.135
-484.420	-200.000	-0.002	-0.075
-483.405	-200.000	0.065	-0.316
-482.391	168.609	-0.172	-0.244
-481.376	-200.000	-0.040	-0.193
-480.362	-44.561	-0.257	-0.128
-479.347	-200.000	-0.007	-0.084
-478.332	-64.141	0.078	-0.032
-477.318	-200.000	-0.020	0.362
-476.303	632.757	-0.102	0.257
-475.289	-200.000	0.001	-0.142
-474.274	-89.092	0.089	-0.026
-473.259	246.414	-0.065	0.108
-472.245	-53.054	0.096	-0.044
-471.230	249.338	-0.203	0.341
-470.216	234.927	0.082	0.134
-469.201	133.801	-0.183	-0.235
-468.186	173.289	-0.094	0.134
-467.172	103.042	0.091	0.106
-466.157	-67.797	-0.169	-0.066
-465.143	-55.110	0.136	-0.061
-464.128	-6.867	-0.305	-0.206
-463.113	-76.223	0.150	0.052
-462.099	148.515	0.165	0.221
-461.084	-200.000	0.020	0.272
-460.070	-108.938	-0.063	0.013
-459.055	-200.000	0.024	0.176
-458.040	-39.715	-0.350	-0.182
-457.026	-54.932	0.212	0.095
-456.011	800.000	0.027	0.077
-454.997	-168.722	-0.219	0.008
-453.982	-200.000	0.007	0.042
-452.968	-41.710	0.241	-0.123
-451.953	-141.144	-0.167	0.017
-450.938	-108.928	0.127	0.027
-449.924	315.879	0.206	0.387
-448.909	36.194	0.181	0.158
-447.895	-10.000	0.089	0.058
-446.880	60.939	-0.343	0.338
-445.865	58.823	-0.241	-0.235
-444.851	119.893	0.126	-0.155
-443.836	753.618	-0.037	-0.100
-442.822	107.958	-0.084	-0.100
-441.807	-200.000	-0.012	0.114
-440.792	-30.781	0.212	0.119
-439.778	192.616	0.117	0.175
-438.763	-79.959	-0.544	-0.181
-437.749	268.411	0.103	-0.180
-436.734	-41.306	0.371	-0.190
-435.719	-200.000	-0.047	-0.435
-434.705	719.050	0.140	-0.369
-433.690	-81.494	0.126	0.041
-432.676	353.833	-0.058	0.115
-431.661	702.660	-0.047	-0.124
-430.646	-73.629	0.310	0.112
-429.632	433.751	-0.169	0.363
-428.617	-200.000	0.037	-0.195
-427.603	265.444	-0.122	0.212
-426.588	800.000	0.154	0.486
-425.573	93.654	0.210	0.236
-424.559	-200.000	-0.010	0.096
-423.544	-157.747	0.125	-0.007
-422.530	673.880	-0.168	0.431
-421.515	800.000	0.033	-0.098
-420.500	55.742	0.068	0.065
-419.486	258.456	0.123	-0.210
-418.471	-3.892	0.337	-0.232
-417.457	-78.474	-0.149	-0.051
-416.442	781.022	-0.062	-0.169
-415.428	113.701	-0.096	-0.115
-414.413	25.237	0.253	-0.208
-413.398	800.000	0.130	-0.364
-412.384	-200.000	0.107	0.000
-411.369	800.000	0.019	0.064
-410.355	-12.001	-0.232	0.151
-409.340	542.856	0.107	-0.253
-408.325	800.000	0.074	-0.318
-407.311	-134.381	-0.128	0.016
-406.296	800.000	-0.022	0.071
-405.282	352.351	0.068	0.134
-404.267	-55.871	0.342	0.151
-403.252	800.000	-0.097	0.308
-402.238	-130.308	0.370	-0.050
-401.223	-124.012	0.312	0.049
-400.209	-104.390	0.170	-0.039
-399.194	235.789	0.102	-0.167
-398.179	-4.592	0.289	-0.198
-397.165	25.713	-0.124	0.102
-396.150	16.145	0.334	-0.260
-395.136	800.000	0.104	-0.342
-394.121	-106.284	0.166	-0.037
-393.106	-200.000	-0.012	0.268
-392.092	-200.000	-0.013	0.163
-391.077	-108.733	-0.054	-0.012
-390.063	135.483	-0.117	-0.150
-389.048	-45.049	0.225	0.111
-388.033	800.000	0.113	-0.364
-387.019	96.853	-0.175	-0.199
-386.004	29.579	0.257	-0.216
-384.990	-65.807	-0.144	0.057
-383.975	-130.385	-0.508	-0.068
-382.960	507.947	-0.060	-0.139
-381.946	-107.972	0.222	0.048
-380.931	-111.345	0.392	0.079
-379.917	-200.000	-0.010	0.206
-378.902	-200.000	0.033	0.292
-377.888	251.656	0.089	0.149
-376.873	-200.000	-0.001	-0.035
-375.858	-200.000	-0.023	-0.145
-374.844	272.389	-0.167	0.292
-373.829	53.895	-0.282	0.268
-372.815	-200.000	-0.084	0.390
-371.800	800.000	-0.016	0.058
-370.785	-10.460	0.312	0.205
-369.771	-200.000	-0.009	0.298
-368.756	800.000	0.044	0.135
-367.742	-20.118	-0.114	-0.070
-366.727	223.431	0.243	-0.389
-365.712	-147.422	-0.274	0.023
-364.698	54.017	0.140	0.134
-363.683	280.385	-0.062	0.110
-362.669	1.406	-0.025	0.018
-361.654	-200.000	0.071	-0.329
-360.639	159.516	0.086	-0.119
-359.625	-68.611	0.100	0.038
-358.610	-94.095	-0.135	-0.037
-357.596	-18.517	-0.370	0.228
-356.581	1.698	-0.322	-0.229
-355.566	32.482	-0.240	0.205
-354.552	511.631	0.044	-0.102
-353.537	-62.654	-0.154	0.063
-352.523	-66.314	-0.141	-0.056
-351.508	23.387	0.292	0.238
-350.493	156.832	0.151	0.207
-349.479	777.719	-0.099	-0.267
-348.464	800.000	-0.063	0.249
-347.450	7.488	-0.045	0.033
-346.435	-88.711	-0.253	0.074
-345.420	410.524	-0.128	0.268
-344.406	91.221	-0.177	0.196
-343.391	155.282	0.119	0.162
-342.377	-200.000	0.005	0.352
-341.362	-200.000	0.012	-0.063
-340.348	-200.000	0.018	-0.085
-339.333	-200.000	0.062	0.429
-338.318	227.581	0.015	-0.024
-337.304	800.000	0.089	-0.309
-336.289	-200.000	0.020	-0.216
-335.275	61.829	-0.163	0.160
-334.260	4.728	-0.144	0.104
-333.245	800.000	0.049	0.182
-332.231	-158.125	-0.051	-0.003
-331.216	-200.000	0.022	0.234
-330.202	-200.000	-0.019	0.180
-329.187	-90.869	-0.261	-0.074
-328.172	-200.000	0.030	-0.305
-327.158	2.891	-0.154	-0.110
-326.143	51.059	-0.184	0.172
-325.129	-17.388	-0.080	0.050
-324.114	-24.959	0.144	-0.084
-323.099	-17.568	0.225	-0.140
-322.085	-52.901	-0.238	0.108
-321.070	-55.963	-0.148	-0.065
-320.056	-6.647	0.075	-0.050
-319.041	-200.000	0.005	0.030
-318.026	-200.000	0.006	-0.064
-317.012	-81.390	0.216	0.070
-315.997	-200.000	0.068	0.297
-314.983	-155.003	0.239	0.015
-313.968	-93.814	-0.170	-0.046
-312.953	-179.376	0.051	-0.001
-311.939	-111.969	-0.279	0.056
-310.924	800.000	0.062	-0.200
-309.910	-40.683	-0.259	-0.133
-308.895	198.277	-0.030	0.046
-307.880	664.327	-0.094	-0.240
-306.866	32.362	-0.193	0.165
-305.851	-42.344	0.119	-0.060
-304.837	-200.000	-0.016	0.318
-303.822	49.341	-0.082	-0.076
-302.807	800.000	0.174	0.479
-301.793	55.534	0.059	-0.056
-300.778	-43.461	0.113	-0.057
-299.764	-159.841	-0.421	-0.023
-298.749	-40.274	0.230	0.118
-297.735	-33.876	-0.048	-0.026
-296.720	177.471	0.189	-0.271
-295.705	-144.662	0.255	0.023
-294.691	604.476	-0.119	-0.292
-293.676	134.135	-0.081	0.103
-292.662	-200.000	0.009	0.227
-291.647	-91.611	0.274	0.077
-290.632	-38.296	-0.169	-0.088
-289.618	35.068	0.173	-0.149
-288.603	-69.782	0.120	-0.045
-287.589	-140.319	-0.164	-0.017
-286.574	281.109	-0.085	-0.150
-285.559	-200.000	-0.024	0.168
-284.545	-77.002	-0.242	0.083
-283.530	44.600	-0.316	-0.286
-282.516	692.842	-0.177	-0.458
-281.501	-132.390	0.400	-0.051
-280.486	-79.107	0.250	0.084
-279.472	800.000	0.075	0.271
-278.457	421.176	0.065	-0.137
-277.443	55.764	0.066	-0.063
-276.428	-73.330	0.370	0.134
-275.413	-23.863	-0.208	0.123
-274.399	537.910	0.088	0.207
-273.384	-108.623	-0.039	0.008
-272.370	-27.726	0.043	0.025
-271.355	-40.342	-0.018	-0.009
-270.340	-153.658	0.215	0.015
-269.326	800.000	0.062	0.170
-268.311	-200.000	0.003	0.260
-267.297	-200.000	-0.001	-0.261
-266.282	512.474	0.073	-0.168
-265.267	-39.695	-0.469	0.242
-264.253	192.827	0.112	0.167
-263.238	127.884	0.171	-0.215
-262.224	-65.674	0.037	0.015
-261.209	800.000	0.021	0.061
-260.195	-200.000	-0.024	0.129
-259.180	11.129	-0.208	0.157
-258.165	-91.251	-0.116	-0.033
-257.151	-117.350	0.268	0.048
-256.136	592.861	-0.108	0.263
-255.122	-200.000	-0.014	-0.192
-254.107	-200.000	0.023	-0.213
-253.092	-102.132	0.090	-0.021
-252.078	-38.054	0.452	0.236
-251.063	-192.616	0.176	-0.002
-250.049	-45.908	-0.072	-0.035
-249.034	-18.676	-0.123	0.076
-248.019	-163.106	0.245	0.012
-247.005	-162.321	-0.249	0.012
-245.990	518.887	-0.108	0.248
-244.976	-16.052	0.311	0.195
-243.961	-103.900	0.707	-0.163
-242.946	-16.139	-0.279	0.174
-241.932	-24.547	-0.126	0.074
-240.917	-3.444	0.148	-0.101
-239.903	-74.049	-0.214	-0.076
-238.888	-30.136	0.239	-0.134
-237.873	138.714	0.135	0.174
-236.859	-200.000	-0.027	0.270
-235.844	98.091	0.117	0.133
-234.830	730.686	0.057	0.151
-233.815	11.288	-0.249	0.188
-232.800	-133.663	0.474	-0.058
-231.786	141.468	0.016	0.021
-230.771	-200.000	-0.015	0.171
-229.757	-200.000	-0.005	-0.051
-228.742	-117.153	-0.191	0.034
-227.727	-66.332	0.188	0.074
-226.713	706.792	0.129	-0.335
-225.698	-87.622	0.153	-0.045
-224.684	-93.468	-0.360	-0.098
-223.669	-111.827	0.161	-0.032
-222.655	135.732	0.168	-0.215
-221.640	-169.093	-0.225	0.008
-220.625	-114.105	0.345	0.066
-219.611	-77.854	0.353	-0.120
-218.596	-200.000	0.066	-0.383
-217.582	-146.701	0.077	0.007
-216.567	-200.000	-0.044	0.304
-215.552	-0.168	-0.359	-0.251
-214.538	-17.377	-0.183	-0.114
-213.523	156.788	-0.007	0.010
-212.509	633.084	0.122	0.303
-211.494	95.277	-0.072	0.081
-210.479	-200.000	-0.023	-0.245
-209.465	-200.000	0.021	-0.164
-208.450	-200.000	0.032	-0.282
-207.436	16.403	0.219	0.170
-206.421	-101.315	0.378	-0.091
-205.406	84.316	0.075	0.081
-204.392	-105.548	-0.033	0.007
-203.377	800.000	0.070	-0.257
-202.363	-52.315	0.410	0.187
-201.348	127.903	-0.069	-0.087
-200.333	800.000	-0.232	-0.679
-199.319	-70.847	0.464	-0.172
-198.304	191.050	-0.222	0.328
-197.290	-87.618	-0.128	-0.038
-196.275	585.591	0.177	-0.428
-195.260	-79.076	-0.142	0.047
-194.246	-65.892	0.292	0.115
-193.231	155.563	0.121	0.164
-192.217	38.582	0.222	0.195
-191.202	579.304	0.081	-0.194
-190.187	-97.890	0.304	-0.077
-189.173	-74.118	-0.226	-0.080
-188.158	309.976	0.054	0.099
-187.144	356.522	-0.055	0.108
-186.129	-37.555	-0.381	0.200
-185.114	-200.000	-0.027	0.286
-184.100	-45.377	0.344	0.168
-183.085	-57.907	-0.012	0.005
-182.071	800.000	0.027	-0.110
-181.056	638.360	-0.085	-0.212
-180.042	-126.169	0.259	0.038
-179.027	364.608	-0.221	0.437
-178.012	72.597	0.168	0.172
-176.998	-47.625	-0.374	-0.178
-175.983	-200.000	-0.059	0.445
-174.969	-121.777	0.224	-0.036
-173.954	-37.528	-0.150	-0.078
-172.939	-190.434	0.118	0.001
-171.925	3.662	0.297	0.213
-170.910	236.311	-0.169	-0.275
-169.896	116.675	0.157	-0.189
-168.881	-57.930	-0.227	0.097
-167.866	-53.903	0.169	-0.076
-166.852	-144.933	-0.072	0.006
-165.837	-50.312	0.152	-0.071
-164.823	94.379	0.052	0.058
-163.808	109.246	-0.043	-0.051
-162.793	-111.265	-0.380	0.076
-161.779	286.826	0.254	-0.450
-160.764	-54.688	0.270	-0.120
-159.750	-46.711	0.294	0.142
-158.735	-98.341	-0.500	-0.126
-157.720	-200.000	0.000	0.011
-156.706	74.456	-0.060	-0.062
-155.691	-73.292	0.089	0.032
-154.677	-200.000	0.000	-0.043
-153.662	-88.455	-0.058	-0.017
-152.647	158.728	-0.130	-0.177
-151.633	-200.000	-0.091	0.408
-150.618	-109.580	0.236	-0.049
-149.604	-72.552	-0.178	0.064
-148.589	16.930	-0.162	-0.126
-147.574	-200.000	0.025	0.161
-146.560	-200.000	0.009	-0.130
-145.545	137.341	0.190	-0.244
-144.531	-200.000	-0.008	0.379
-143.516	-185.993	0.340	0.005
-142.502	-58.295	0.443	0.189
-141.487	-13.760	-0.229	0.146
-140.472	22.648	-0.227	0.182
-139.458	-41.093	-0.125	0.064
-138.443	-9.145	0.070	0.046
-137.429	153.671	-0.113	0.152
-136.414	-133.765	-0.117	0.014
-135.399	437.923	-0.087	0.186
-134.385	-11.302	-0.087	0.056
-133.370	-68.345	0.095	-0.036
-132.356	170.234	-0.177	0.248
-131.341	-76.000	0.379	0.131
-130.326	-163.929	0.144	0.007
-129.312	-5.007	0.136	0.092
-128.297	65.099	0.200	-0.198
-127.283	297.937	-0.211	0.379
-126.268	-99.368	-0.211	-0.052
-125.253	48.647	0.236	0.217
-124.239	-136.185	0.205	-0.024
-123.224	291.101	-0.046	0.081
-122.210	-159.740	0.322	0.017
-121.195	-49.070	0.301	0.141
-120.180	28.945	0.027	0.022
-119.166	-200.000	-0.014	-0.149
-118.151	179.466	-0.098	-0.141
-117.137	-48.885	0.129	-0.061
-116.122	-69.430	0.213	0.080
-115.107	-200.000	-0.003	0.062
-114.093	133.738	-0.084	0.107
-113.078	-200.000	-0.027	0.270
-112.064	-200.000	-0.014	-0.091
-111.049	800.000	-0.070	0.213
-110.034	528.503	0.060	-0.139
-109.020	143.116	-0.080	-0.104
-108.005	3.108	-0.104	-0.074
-106.991	-200.000	0.068	0.340
-105.976	-200.000	0.018	-0.280
-104.962	587.889	0.227	0.547
-103.947	142.009	-0.050	0.065
-102.932	557.123	-0.056	0.131
-101.918	-200.000	0.080	-0.363
-100.903	-72.919	-0.163	-0.059
-99.889	-200.000	-0.028	-0.142
-98.874	-200.000	0.034	-0.149
-97.859	-33.680	0.132	0.071
-96.845	-170.134	-0.056	0.002
-95.830	-103.815	0.119	0.027
-94.816	-45.540	0.318	0.154
-93.801	-104.856	-0.309	0.069
-92.786	-45.818	0.458	-0.221
-91.772	800.000	0.065	0.263
-90.757	-82.211	-0.123	0.039
-89.743	-5.901	0.362	-0.243
-88.728	-200.000	-0.020	0.323
-87.713	23.592	0.056	-0.045
-86.699	800.000	-0.039	-0.167
-85.684	125.770	0.130	0.160
-84.670	513.969	-0.197	0.449
-83.655	800.000	0.030	0.108
-82.640	-115.938	-0.190	-0.035
-81.626	101.004	-0.143	-0.162
-80.611	97.211	-0.150	-0.168
-79.597	22.197	-0.186	-0.149
-78.582	70.975	-0.202	0.205
-77.567	-200.000	-0.017	0.160
-76.553	-100.704	0.271	-0.065
-75.538	-24.909	0.064	0.037
-74.524	53.468	0.131	-0.123
-73.509	-109.265	-0.311	-0.065
-72.494	-120.325	-0.244	-0.041
-71.480	-129.094	0.202	0.028
-70.465	800.000	0.115	-0.385
-69.451	604.628	-0.041	0.101
-68.436	-68.192	-0.355	0.135
-67.422	-42.885	-0.036	-0.018
-66.407	-49.795	-0.369	-0.171
-65.392	-200.000	0.011	0.115
-64.378	-200.000	0.027	0.267
-63.363	41.694	0.196	0.174
-62.349	-146.606	-0.166	0.014
-61.334	52.842	-1.060	-0.991
-60.319	-19.417	0.843	0.511
-59.305	669.415	-0.563	-1.424
-58.290	206.318	0.627	0.954
-57.276	444.182	0.640	1.372
-56.261	-200.000	115.611	628.929
-55.246	452.767	1511.493	3267.897
-54.232	145.557	2693.389	3526.346
-53.217	95.237	2309.020	2571.179
-52.203	36.223	1916.329	1650.312
-51.188	30.182	1704.723	1421.873
-50.173	27.879	1662.008	1368.948
-49.159	47.962	1717.396	1568.123
-48.144	46.680	1731.635	1571.298
-47.130	29.807	1689.599	1406.184
-46.115	27.205	1674.923	1374.272
-45.100	27.086	1670.121	1369.380
-44.086	27.008	1667.580	1366.660
-43.071	26.910	1665.747	1364.362
-42.057	26.971	1663.125	1362.618
-41.042	27.059	1660.261	1360.876
-40.027	27.030	1658.753	1359.372
-39.013	27.030	1656.914	1357.814
-37.998	26.982	1655.243	1356.029
-36.984	27.054	1653.807	1355.333
-35.969	27.014	1652.357	1353.797
-34.954	27.207	1650.544	1353.697
-33.940	27.054	1648.931	1351.182
-32.925	27.141	1647.165	1350.326
-31.911	27.130	1645.533	1348.850
-30.896	27.139	1643.764	1347.412
-29.881	27.095	1642.161	1345.719
-28.867	27.133	1640.617	1344.681
-27.852	27.080	1639.263	1343.132
-26.838	27.086	1637.559	1341.725
-25.823	27.074	1636.367	1340.605
-24.809	27.118	1635.208	1339.925
-23.794	27.192	1633.521	1339.038
-22.779	27.255	1631.899	1338.120
-21.765	27.178	1630.485	1336.337
-20.750	27.098	1629.262	1334.697
-19.736	27.255	1627.307	1334.192
-18.721	27.222	1626.230	1333.015
-17.706	27.113	1624.911	1331.082
-16.692	27.123	1623.057	1329.581
-15.677	27.172	1621.892	1328.936
-14.663	27.202	1620.484	1327.947
-13.648	27.232	1618.886	1326.804
-12.633	27.153	1617.661	1325.172
-11.619	27.069	1616.547	1323.596
-10.604	27.187	1614.467	1322.701
-9.590	27.157	1613.008	1321.235
-8.575	27.188	1611.475	1320.151
-7.560	27.168	1610.222	1318.926
-6.546	27.083	1609.671	1317.806
-5.531	27.109	1608.595	1317.063
-4.517	27.099	1607.444	1315.995
-3.502	27.068	1605.881	1314.437
-2.487	27.274	1604.195	1314.497
-1.473	26.784	1592.319	1301.194
-0.458	23.888	1572.719	1264.564
0.556	18.157	1573.451	1232.908
1.571	15.612	1597.868	1233.276
2.586	15.262	1609.835	1239.816
3.600	14.333	1557.022	1192.392
4.615	9.963	1449.720	1080.929
5.629	5.063	1389.993	1004.806
6.644	4.156	1382.157	993.238
7.659	4.056	1381.436	991.995
8.673	4.072	1380.253	991.157
9.688	3.967	1378.296	988.991
10.702	4.010	1375.457	987.144
11.717	6.576	1379.681	1006.483
12.731	11.791	1388.148	1045.985
13.746	15.033	1393.093	1070.385
14.761	15.704	1393.176	1074.641
15.775	15.281	1391.000	1070.171
16.790	14.468	1389.322	1063.599
17.804	13.706	1387.861	1057.526
18.819	13.410	1385.748	1053.942
19.834	13.116	1384.676	1051.157
20.848	12.828	1382.765	1047.785
21.863	12.518	1381.680	1044.901
22.877	12.225	1379.922	1041.619
23.892	12.158	1378.917	1040.343
24.907	12.119	1378.085	1039.378
25.921	12.080	1377.690	1038.739
26.936	12.221	1376.494	1038.642
27.950	12.241	1375.335	1037.797
28.965	12.156	1375.076	1036.974
29.980	12.131	1373.864	1035.811
30.994	12.325	1372.499	1035.914
32.009	12.259	1371.862	1034.929
33.023	12.200	1371.037	1033.843
34.038	12.275	1369.905	1033.371
35.053	12.331	1368.316	1032.430
36.067	12.253	1367.469	1031.207
37.082	12.224	1366.657	1030.321
38.096	12.260	1365.454	1029.554
39.111	12.221	1364.812	1028.734
40.126	12.237	1363.656	1027.868
41.140	12.240	1362.749	1027.112
42.155	12.237	1362.435	1026.765
43.169	12.118	1362.947	1026.317
44.184	12.200	1362.086	1026.092
45.199	12.235	1361.525	1025.794
46.213	12.165	1361.281	1025.082
47.228	12.157	1360.083	1024.045
48.242	12.195	1358.501	1022.994
49.257	12.163	1357.082	1021.639
50.271	12.181	1355.844	1020.732
51.286	12.174	1354.548	1019.616
52.301	12.225	1353.113	1018.768
53.315	12.107	1352.543	1017.515
54.330	12.252	1351.052	1017.203
55.344	12.152	1350.039	1015.728
56.359	12.210	1348.507	1014.845
57.374	12.193	1347.883	1014.182
58.388	12.108	1347.420	1013.220
59.403	12.218	1346.705	1013.266
60.417	12.107	1346.259	1012.158
61.432	12.066	1345.523	1011.262
62.447	12.125	1344.301	1010.617
63.461	12.140	1342.903	1009.569
64.476	12.084	1342.055	1008.500
65.490	12.079	1340.431	1007.158
66.505	12.190	1338.118	1006.013
67.520	12.066	1337.500	1004.698
68.534	12.115	1336.323	1004.026
69.549	12.118	1335.341	1003.220
70.563	12.029	1334.433	1001.902
71.578	11.978	1333.369	1000.701
72.593	12.016	1332.312	1000.056
73.607	12.080	1331.180	999.509
74.622	12.066	1330.442	998.777
75.636	11.986	1329.983	997.857
76.651	12.062	1328.915	997.430
77.666	12.030	1328.663	996.957
78.680	12.051	1327.582	996.185
79.695	12.029	1326.890	995.447
80.709	12.082	1325.754	994.831
81.724	12.070	1324.747	993.910
82.739	12.081	1323.969	993.308
83.753	12.101	1323.078	992.671
84.768	12.101	1322.005	991.780
85.782	12.134	1320.417	990.698
86.797	12.171	1319.081	989.829
87.812	12.041	1318.317	988.386
88.826	12.126	1316.458	987.419
89.841	12.233	1315.444	987.211
90.855	12.227	1314.667	986.506
91.870	12.180	1314.217	985.797
92.884	12.289	1312.853	985.343
93.899	12.305	1311.887	984.627
94.914	12.232	1311.592	983.879
95.928	12.255	1310.607	983.192
96.943	12.193	1309.690	982.049
97.957	12.261	1308.710	981.632
98.972	12.229	1307.610	980.530
99.987	12.273	1306.610	979.955
101.001	12.184	1305.180	978.265
102.016	12.162	1304.600	977.613
103.030	12.231	1303.236	976.915
104.045	12.248	1302.482	976.366
105.060	12.193	1301.130	974.935
106.074	12.204	1300.410	974.379
107.089	12.249	1298.767	973.328
108.103	12.108	1298.096	971.903
109.118	12.164	1296.642	971.059
110.133	12.098	1295.411	969.660
111.147	12.085	1294.035	968.469
112.162	12.162	1292.331	967.563
113.176	12.215	1291.542	967.197
114.191	12.221	1290.513	966.374
115.206	12.322	1289.305	965.979
116.220	12.256	1288.043	964.559
117.235	12.208	1287.331	963.661
118.249	12.244	1286.520	963.183
119.264	12.310	1284.813	962.203
120.279	12.216	1283.943	960.919
121.293	12.279	1282.986	960.486
122.308	12.270	1281.467	959.208
123.322	12.317	1280.929	958.997
124.337	12.251	1280.518	958.217
125.352	12.311	1278.812	957.207
126.366	12.296	1278.061	956.471
127.381	12.302	1276.622	955.344
128.395	12.225	1276.004	954.353
129.410	12.316	1274.765	953.867
130.424	12.309	1273.965	953.145
131.439	12.307	1272.889	952.245
132.454	12.215	1272.211	951.121
133.468	12.251	1271.221	950.500
134.483	12.345	1270.628	950.522
135.497	12.305	1269.208	949.144
136.512	12.276	1267.745	947.798
137.527	12.166	1266.773	946.351
138.541	12.369	1264.867	946.012
139.556	12.234	1263.760	944.325
140.570	12.237	1262.789	943.532
141.585	12.280	1261.446	942.695
142.600	12.325	1260.581	942.222
143.614	12.319	1259.411	941.228
144.629	12.306	1258.701	940.544
145.643	12.386	1257.070	939.697
146.658	12.374	1255.838	938.627
147.673	12.347	1254.666	937.509
148.687	12.349	1253.418	936.508
149.702	12.278	1252.345	935.217
150.716	12.373	1250.788	934.510
151.731	12.516	1249.168	934.034
152.746	12.423	1248.263	932.745
153.760	12.360	1247.337	931.610
154.775	12.385	1245.981	930.662
155.789	12.455	1244.661	929.987
156.804	12.479	1243.648	929.282
157.819	12.512	1242.845	928.787
158.833	12.490	1241.796	927.800
159.848	12.452	1241.087	926.970
160.862	12.481	1240.282	926.451
161.877	12.484	1238.869	925.333
162.892	12.422	1237.780	924.088
163.906	12.442	1237.041	923.565
164.921	12.585	1236.173	923.641
165.935	12.444	1235.175	922.022
166.950	12.514	1234.573	921.882
167.964	12.445	1233.696	920.760
168.979	12.500	1233.160	920.585
169.994	12.676	1232.015	920.635
171.008	12.458	1231.772	919.153
172.023	12.693	1230.678	919.570
173.037	12.651	1229.436	918.322
174.052	12.688	1228.690	917.891
175.067	12.626	1227.706	916.732
176.081	12.509	1227.124	915.565
177.096	12.594	1226.392	915.411
178.110	12.643	1224.733	914.362
179.125	12.649	1223.460	913.364
180.140	12.673	1221.921	912.265
181.154	12.766	1220.815	911.874
182.169	12.831	1219.661	911.291
183.183	12.688	1218.952	909.890
184.198	12.810	1217.369	909.302
185.213	12.791	1216.250	908.281
186.227	12.875	1214.676	907.487
187.242	12.801	1213.846	906.381
188.256	12.902	1212.902	906.150
189.271	12.850	1212.237	905.288
190.286	12.811	1211.355	904.334
191.300	12.762	1210.740	903.528
192.315	12.696	1210.297	902.752
193.329	12.815	1209.341	902.614
194.344	12.836	1208.684	902.157
195.359	12.727	1208.457	901.313
196.373	12.868	1207.596	901.362
197.388	12.812	1207.091	900.601
198.402	12.959	1206.459	900.852
199.417	12.952	1205.774	900.220
200.432	12.905	1204.976	899.289
201.446	13.027	1203.669	898.897
202.461	13.023	1202.890	898.216
203.475	13.128	1201.391	897.590
204.490	12.997	1200.829	896.377
205.504	13.009	1199.455	895.337
206.519	13.040	1198.293	894.560
207.534	13.018	1197.639	893.873
208.548	12.966	1196.965	893.010
209.563	12.964	1195.772	892.028
210.577	13.009	1194.730	891.416
211.592	13.078	1193.877	891.073
212.607	13.126	1193.256	890.789
213.621	13.144	1192.003	889.872
214.636	13.139	1191.067	889.066
215.650	13.221	1189.982	888.621
216.665	13.172	1188.903	887.471
217.680	13.131	1188.616	886.959
218.694	13.265	1187.657	886.885
219.709	13.303	1186.848	886.406
220.723	13.424	1185.357	885.860
221.738	13.284	1185.683	885.278
222.753	13.153	1184.669	883.742
223.767	13.370	1183.632	884.048
224.782	13.358	1182.813	883.296
225.796	13.348	1182.424	882.875
226.811	13.312	1181.378	881.821
227.826	13.454	1180.762	882.038
228.840	13.361	1180.351	881.158
229.855	13.282	1179.536	880.053
230.869	13.293	1178.819	879.499
231.884	13.390	1177.751	879.141
232.899	13.472	1176.620	878.654
233.913	13.491	1176.215	878.373
234.928	13.523	1175.507	877.938
235.942	13.377	1174.878	876.614
236.957	13.449	1173.934	876.215
237.972	13.460	1173.155	875.613
238.986	13.440	1172.461	874.913
240.001	13.552	1171.502	874.713
241.015	13.409	1171.268	873.706
242.030	13.540	1170.052	873.411
243.045	13.451	1169.572	872.504
244.059	13.504	1168.630	872.003
245.074	13.567	1167.756	871.606
246.088	13.524	1166.885	870.656
247.103	13.554	1166.128	870.170
248.117	13.624	1165.184	869.756
249.132	13.530	1164.651	868.790
250.147	13.687	1163.766	868.871
251.161	13.738	1162.624	868.208
252.176	13.762	1161.878	867.701
253.190	13.847	1161.516	867.800
254.205	13.640	1161.162	866.377
255.220	13.766	1160.129	866.188
256.234	13.675	1160.304	865.765
257.249	13.787	1158.981	865.284
258.263	13.805	1158.466	864.916
259.278	13.792	1158.118	864.517
260.293	13.869	1157.502	864.381
261.307	13.919	1156.801	864.038
262.322	13.825	1156.607	863.329
263.336	13.901	1155.155	862.565
264.351	14.009	1154.424	862.500
265.366	14.001	1153.693	861.838
266.380	13.919	1153.436	861.144
267.395	13.983	1152.660	860.819
268.409	13.945	1151.776	859.889
269.424	13.958	1151.519	859.685
270.439	13.976	1150.762	859.141
271.453	14.008	1149.593	858.356
272.468	14.017	1148.741	857.687
273.482	14.015	1148.550	857.459
274.497	14.030	1147.646	856.787
275.512	14.020	1147.347	856.439
276.526	14.065	1146.407	855.892
277.541	14.092	1145.316	855.142
278.555	14.189	1144.422	854.896
279.570	14.198	1143.703	854.330
280.585	14.224	1142.991	853.852
281.599	14.175	1142.409	853.094
282.614	14.215	1141.233	852.343
283.628	14.144	1140.058	851.026
284.643	14.146	1139.131	850.271
285.657	14.327	1138.443	850.609
286.672	14.355	1137.063	849.643
287.687	14.354	1136.597	849.215
288.701	14.264	1135.824	848.105
289.716	14.242	1135.146	847.411
290.730	14.299	1134.609	847.224
291.745	14.379	1133.514	846.737
292.760	14.452	1132.934	846.601
293.774	14.422	1132.609	846.131
294.789	14.390	1132.101	845.512
295.803	14.368	1131.118	844.593
296.818	14.568	1130.430	845.017
297.833	14.307	1130.036	843.328
298.847	14.446	1129.011	843.192
299.862	14.555	1127.798	842.762
300.876	14.427	1127.466	841.792
301.891	14.522	1126.747	841.659
302.906	14.541	1125.999	841.123
303.920	14.487	1125.684	840.541
304.935	14.534	1124.813	840.051
305.949	14.562	1123.882	839.423
306.964	14.595	1123.667	839.354
307.979	14.644	1122.588	838.723
308.993	14.650	1121.770	838.065
310.008	14.653	1121.166	837.554
311.022	14.597	1120.002	836.332
312.037	14.733	1119.481	836.552
313.052	14.674	1118.586	835.510
314.066	14.721	1117.590	834.930
315.081	14.688	1116.670	834.005
316.095	14.768	1116.125	833.919
317.110	14.682	1115.534	832.977
318.125	14.869	1114.577	833.118
319.139	14.624	1113.926	831.342
320.154	14.779	1113.201	831.495
321.168	14.730	1112.781	830.867
322.183	14.873	1111.535	830.573
323.197	14.786	1111.393	829.959
324.212	14.682	1111.209	829.234
325.227	14.851	1110.142	829.202
326.241	14.813	1109.498	828.460
327.256	14.824	1108.590	827.765
328.270	14.865	1107.683	827.213
329.285	14.834	1107.012	826.489
330.300	14.842	1106.410	826.005
331.314	14.967	1104.939	825.452
332.329	14.851	1104.343	824.357
333.343	14.933	1103.038	823.715
334.358	14.892	1102.466	823.013
335.373	14.951	1101.894	822.806
336.387	14.952	1100.832	821.946
337.402	14.937	1100.161	821.298
338.416	14.973	1099.400	820.832
339.431	15.103	1098.570	820.777
340.446	15.169	1097.785	820.440
341.460	15.174	1097.175	819.939
342.475	15.070	1096.511	818.858
343.489	15.125	1095.170	818.057
344.504	15.165	1094.402	817.602
345.519	15.183	1093.779	817.154
346.533	15.280	1092.769	816.800
347.548	15.227	1092.275	816.100
348.562	15.233	1091.771	815.682
349.577	15.099	1091.399	814.677
350.592	15.239	1089.818	814.106
351.606	15.248	1089.224	813.633
352.621	15.278	1088.132	812.890
353.635	15.302	1088.033	812.863
354.650	15.100	1087.839	811.667
355.665	15.219	1086.714	811.331
356.679	15.135	1086.252	810.509
357.694	15.282	1085.484	810.573
358.708	15.394	1084.532	810.331
359.723	15.272	1083.994	809.270
360.738	15.421	1083.413	809.484
361.752	15.448	1082.457	808.826
362.767	15.394	1082.163	808.279
363.781	15.344	1081.726	807.637
364.796	15.424	1080.949	807.372
365.810	15.402	1080.629	806.954
366.825	15.438	1079.810	806.442
367.840	15.436	1079.488	806.121
368.854	15.605	1078.428	806.070
369.869	15.564	1077.712	805.268
370.883	15.458	1076.999	804.156
371.898	15.522	1076.272	803.850
372.913	15.637	1075.716	803.911
373.927	15.590	1075.166	803.204
374.942	15.612	1074.690	802.886
375.956	15.712	1074.055	802.817
376.971	15.516	1073.579	801.452
377.986	15.765	1072.955	802.103
379.000	15.720	1072.406	801.408
380.015	15.677	1071.866	800.730
381.029	15.736	1071.257	800.484
382.044	15.755	1070.611	800.019
383.059	15.796	1069.986	799.679
384.073	15.708	1068.783	798.291
385.088	15.687	1068.626	798.005
386.102	15.746	1067.633	797.470
387.117	15.841	1066.452	796.970
388.132	15.851	1065.156	795.977
389.146	15.834	1064.802	795.563
390.161	15.817	1064.185	794.948
391.175	15.798	1063.659	794.397
392.190	15.977	1062.537	794.331
393.205	16.015	1061.645	793.775
394.219	15.945	1061.272	793.096
395.234	15.805	1060.541	791.818
396.248	15.992	1059.274	791.684
397.263	16.053	1058.056	790.988
398.278	15.918	1057.869	790.145
399.292	16.063	1057.270	790.307
400.307	15.984	1056.458	789.260
401.321	15.920	1056.083	788.613
402.336	16.061	1055.497	788.764
403.350	16.006	1054.589	787.756
404.365	16.032	1053.975	787.352
405.380	16.137	1053.264	787.241
406.394	16.171	1052.285	786.600
407.409	16.058	1051.581	785.475
408.423	16.080	1050.872	784.979
409.438	16.125	1049.946	784.429
410.453	16.139	1049.599	784.165
411.467	16.084	1048.937	783.344
412.482	16.160	1048.417	783.240
413.496	16.236	1047.450	782.799
414.511	16.157	1046.825	781.897
415.526	16.295	1046.323	782.091
416.540	16.323	1046.336	782.165
417.555	16.339	1045.653	781.658
418.569	16.330	1045.429	781.380
419.584	16.340	1044.380	780.572
420.599	16.341	1043.949	780.186
421.613	103.912	1328.973	1478.723
422.628	95.349	1370.448	1478.811
